##NAME:²É¼¯Í¼Æ×
##X_AXIS:Raman Shift(cm-1)
##Y_AXIS:ORIGINAL_REDUCE_DARK
##DATE:2025-03-15
##TIME:15:32:20
##LASERLENGTH:785
##LASERLEVEL:120
##INTGRTIME:5000
##>>>>>Begin Processed Spectral Data<<<<<
158,78
159,74.8373
160,71.32
161,74.1223
162,80.721
163,88.5589
164,98.6829
165,109.053
166,122.266
167,135.479
168,150.837
169,166.702
170,186.619
171,209.989
172,233.723
173,258.43
174,283.133
175,306.971
176,330.81
177,348.773
178,364.674
179,379.317
180,392.576
181,403.378
182,405.147
183,406.916
184,409.95
185,413.048
186,410.32
187,405.007
188,401.231
189,399.459
190,397.452
191,394.349
192,391.246
193,395.083
194,399.518
195,402.182
196,403.957
197,405.55
198,406.882
199,408.998
200,415.218
201,421.438
202,426.449
203,431.339
204,429.476
205,424.138
206,422.834
207,427.285
208,431.589
209,435.152
210,438.714
211,444.738
212,450.976
213,455.108
214,458.229
215,466.562
216,481.729
217,494.853
218,499.316
219,503.78
220,500.179
221,496.159
222,491.502
223,486.586
224,482.517
225,479.387
226,476.044
227,472.017
228,468.007
229,470.692
230,473.378
231,472.623
232,470.831
233,474.805
234,483.769
235,494.238
236,508.14
237,520.697
238,516.659
239,512.621
240,518.079
241,525.263
242,531.893
243,538.182
244,541.117
245,538.87
246,536.849
247,535.949
248,535.05
249,527.348
250,519.248
251,524.157
252,534.063
253,540.356
254,543.059
255,544.492
256,542.688
257,541.172
258,543.879
259,546.585
260,551.967
261,557.834
262,562.849
263,567.365
264,566.613
265,558.48
266,553.378
267,560.159
268,566.941
269,569.691
270,572.405
271,572.293
272,571.388
273,572.552
274,575.27
275,573.049
276,562.174
277,553.355
278,555.622
279,557.889
280,558.431
281,558.885
282,552.221
283,543.142
284,536.036
285,530.586
286,526.378
287,524.56
288,522.549
289,519.366
290,516.183
291,509.568
292,502.743
293,496.593
294,490.675
295,488.749
296,490.115
297,488.107
298,479.903
299,473.506
300,476.699
301,479.891
302,475.593
303,471.03
304,468.232
305,465.95
306,466.334
307,468.618
308,466.028
309,455.972
310,446.199
311,437.509
312,428.971
313,427.599
314,426.226
315,414.522
316,400.786
317,389.731
318,380.11
319,372.206
320,366.246
321,362.132
322,362.591
323,362.705
324,359.951
325,357.197
326,351.032
327,344.603
328,341.275
329,338.978
330,337.472
331,336.552
332,335.449
333,334.069
334,331.238
335,323.413
336,315.661
337,309.214
338,302.766
339,298.752
340,295.065
341,293.344
342,292.422
343,289.749
344,285.597
345,280.926
346,275.387
347,272.057
348,277.138
349,281.901
350,279.59
351,277.28
352,273.748
353,270.049
354,269.994
355,271.382
356,270.716
357,268.401
358,268.28
359,271.522
360,272.579
361,266.554
362,261.217
363,264
364,266.782
365,271.704
366,276.808
367,279.779
368,282.1
369,282.716
370,282.251
371,280.291
372,276.572
373,275.147
374,278.867
375,280.971
376,274.457
377,267.971
378,264.712
379,261.453
380,261.401
381,261.867
382,265.997
383,271.59
384,272.407
385,269.609
386,269.389
387,272.655
388,273.419
389,267.816
390,263.657
391,268.329
392,273
393,274.403
394,275.805
395,274.792
396,273.389
397,276.722
398,281.87
399,288.393
400,295.885
401,295.353
402,285.046
403,278.148
404,278.617
405,279.43
406,281.776
407,285.017
408,304.73
409,324.442
410,311.295
411,295.328
412,297.207
413,303.786
414,295.395
415,279.41
416,277.804
417,288.624
418,290.747
419,280.392
420,271.248
421,265.125
422,259.693
423,257.808
424,256.058
425,257.472
426,258.887
427,254.226
428,249.037
429,246.867
430,245.451
431,244.678
432,244.206
433,243.466
434,242.521
435,242.212
436,242.685
437,244.263
438,248.048
439,249.854
440,244.646
441,240.153
442,241.574
443,242.995
444,239.694
445,236.376
446,233.057
447,229.738
448,232.321
449,236.592
450,239.909
451,242.758
452,241.857
453,238.057
454,236.654
455,238.08
456,240.349
457,244.154
458,245.322
459,238.66
460,233.286
461,235.191
462,236.857
463,233.999
464,231.141
465,232.36
466,233.79
467,232.373
468,230.465
469,228.918
470,227.486
471,231.415
472,238.1
473,233.697
474,220.798
475,213.774
476,213.296
477,214.093
478,216.963
479,216.361
480,207.269
481,200.384
482,202.3
483,205.075
484,214.657
485,223.868
486,218.595
487,213.322
488,205.794
489,198.12
490,210.116
491,225.474
492,227.52
493,225.599
494,222.686
495,219.323
496,218.292
497,218.772
498,216.721
499,212.391
500,211.508
501,214.877
502,216.822
503,216.34
504,214.728
505,210.391
506,207.105
507,207.587
508,208.694
509,213.517
510,218.171
511,220.584
512,222.997
513,217.693
514,212.381
515,213.794
516,215.727
517,224.72
518,234.873
519,232.793
520,227.472
521,220.748
522,213.487
523,215.776
524,223.041
525,227.723
526,230.631
527,226.869
528,217.172
529,211.774
530,211.288
531,215.329
532,226.008
533,229.813
534,220.585
535,212.887
536,208.999
537,206.334
538,207.792
539,209.837
540,214.702
541,218.375
542,213.021
543,207.696
544,202.825
545,198.064
546,204.887
547,211.709
548,215.268
549,218.681
550,215.461
551,211.558
552,208.49
553,205.56
554,205.395
555,205.883
556,207.488
557,209.443
558,207.901
559,204.967
560,203.344
561,202.365
562,202
563,202
564,200.284
565,197.345
566,196.798
567,198.268
568,198.754
569,198.263
570,195.955
571,191.539
572,190.878
573,195.296
574,197.237
575,195.272
576,193.654
577,192.671
578,191.375
579,189.407
580,188.56
581,190.528
582,191.255
583,188.301
584,186.654
585,189.61
586,191.152
587,186.715
588,183
589,183
590,183.333
591,185.8
592,188.428
593,192.378
594,195.385
595,187.975
596,181.058
597,182.047
598,183.159
599,187.61
600,191.966
601,189.492
602,187.017
603,181.592
604,176.145
605,182.751
606,189.687
607,186.687
608,183.217
609,183.465
610,183.961
611,189.487
612,195.442
613,192.4
614,188.428
615,187.557
616,187.06
617,189.186
618,191.672
619,191.137
620,190.142
621,195.12
622,201.092
623,196.089
624,189.118
625,190.51
626,193.499
627,199.395
628,205.876
629,208.649
630,210.644
631,217.971
632,226.456
633,228.817
634,229.816
635,226.334
636,221.837
637,221
638,221
639,217.745
640,213.743
641,213
642,213
643,211.365
644,209.362
645,202.432
646,194.415
647,195.477
648,198.485
649,200.663
650,202.669
651,202.581
652,202.079
653,202.423
654,202.925
655,202.572
656,202.07
657,204.597
658,207.614
659,205.368
660,202.35
661,205.559
662,209.586
663,211.355
664,212.866
665,200.601
666,186.997
667,186
668,186
669,195.516
670,205.605
671,200.181
672,194.124
673,193.505
674,193
675,186.94
676,181.092
677,185.643
678,189.807
679,185.254
680,181.597
681,190.708
682,199.409
683,203.967
684,208.117
685,209.13
686,210.287
687,212.315
688,212.969
689,206.882
690,202.603
691,205.648
692,210.661
693,222.342
694,227.318
695,213.09
696,202.704
697,201.687
698,204.296
699,214.47
700,221.547
701,223.074
702,216.785
703,198.451
704,190.41
705,196.015
706,202.099
707,208.727
708,210.192
709,206.621
710,203.607
711,201.055
712,198.801
713,196.758
714,196.964
715,198.497
716,193.848
717,186.179
718,179.971
719,174.344
720,170.273
721,166.69
722,173.857
723,183.588
724,181.933
725,178.346
726,174.758
727,171.168
728,177.356
729,183.985
730,179.878
731,175.886
732,173.832
733,172.279
734,174.848
735,176.415
736,172.816
737,171.79
738,180.022
739,186.845
740,189.934
741,189.443
742,181.718
743,178.805
744,183.443
745,186.694
746,188.241
747,190.576
748,193.671
749,202.955
750,216.892
751,212.185
752,196.691
753,198.125
754,206.91
755,204.272
756,198.067
757,199.142
758,201.728
759,197.367
760,192.191
761,189.506
762,187
763,187
764,187.053
765,187.572
766,188.361
767,190.436
768,192.511
769,194.588
770,195.834
771,195.315
772,193.976
773,191.377
774,191.955
775,196.114
776,199.422
777,202.023
778,203.325
779,203.846
780,204.366
781,204.887
782,209.897
783,216.15
784,210.692
785,203.393
786,200.038
787,196.985
788,196.463
789,196.356
790,199.489
791,201.688
792,200.121
793,198.105
794,194.968
795,193
796,193
797,194.448
798,197.589
799,193.233
800,182.758
801,181.016
802,184.16
803,189.611
804,195.903
805,191.803
806,185.507
807,183.552
808,182.007
809,182.533
810,183.289
811,185.917
812,187.347
813,184.192
814,181.518
815,179.94
816,180.49
817,184.174
818,184.937
819,182.831
820,183.915
821,187.077
822,186.88
823,185.299
824,186.284
825,187.866
826,185.584
827,183.156
828,190.549
829,195.854
830,186.871
831,179.13
832,175.429
833,176.636
834,187.216
835,193.48
836,194.539
837,189.922
838,180.919
839,180.149
840,183.328
841,190.69
842,199.173
843,189.947
844,179.055
845,182.24
846,185.637
847,190.417
848,192.936
849,188.685
850,183.846
851,177.998
852,179.667
853,189.242
854,190.09
855,185.3
856,182.06
857,179.397
858,178.547
859,178.014
860,181.636
861,184.527
862,179.726
863,175.164
864,171.428
865,169.561
866,171.163
867,171.234
868,169.631
869,167.38
870,164.707
871,168.722
872,175.141
873,177.391
874,178.996
875,175.794
876,172.651
877,169.972
878,168.566
879,170.71
880,173.069
881,175.751
882,174.706
883,170.412
884,172.604
885,177.974
886,177.262
887,175.112
888,169.396
889,164.942
890,175.699
891,182.525
892,176.067
893,170.804
894,167.573
895,166.277
896,166.815
897,170.189
898,175.04
899,170.808
900,164.335
901,164
902,164.463
903,169.323
904,172.211
905,168.97
906,169.121
907,174.527
908,175.239
909,171.994
910,169.874
911,168.25
912,170.748
913,173.997
914,175.082
915,175.086
916,169.123
917,165.669
918,167.839
919,172.531
920,180.128
921,177.934
922,169.79
923,168.424
924,168.967
925,167.979
926,167.761
927,175.375
928,180.858
929,180.314
930,178.155
931,173.799
932,173.599
933,176.323
934,181.095
935,186.546
936,183.5
937,179.319
938,171.134
939,165.41
940,167.048
941,170.747
942,177.302
943,178.392
944,175.659
945,170.849
946,165.381
947,167.036
948,169.789
949,177.454
950,180.578
951,171.813
952,167
953,167
954,167.687
955,168.784
956,169
957,169
958,163.079
959,157.738
960,156.09
961,158.534
962,168.977
963,171.432
964,166.482
965,164.229
966,163.129
967,163.972
968,164.78
969,161.475
970,161.214
971,170.032
972,173.074
973,168.662
974,169.751
975,174.165
976,173.21
977,171.002
978,164.929
979,161.774
980,171.169
981,175.112
982,170.136
983,170.527
984,174.953
985,173.042
986,169.167
987,173.24
988,176.748
989,175.086
990,174.192
991,174.747
992,169.875
993,160.444
994,158.823
995,159.933
996,162.609
997,165.617
998,170.063
999,172.811
1000,172.255
1001,173.805
1002,177.143
1003,177.586
1004,177.03
1005,176.473
1006,175.747
1007,174.076
1008,171.013
1009,165.437
1010,166.768
1011,173.462
1012,171.561
1013,167.096
1014,167
1015,167.42
1016,169.655
1017,170.332
1018,168.655
1019,166.295
1020,163.498
1021,163.46
1022,164.118
1023,167.478
1024,169.161
1025,165.8
1026,166.084
1027,170.569
1028,171.618
1029,171.057
1030,169.488
1031,168.653
1032,174.268
1033,175.738
1034,168.996
1035,168.498
1036,172.996
1037,175.747
1038,177.997
1039,178.562
1040,177.626
1041,171.432
1042,166.995
1043,164.742
1044,167.404
1045,172.477
1046,175.529
1047,177.511
1048,173.561
1049,167.425
1050,157.262
1051,160.545
1052,173.538
1053,176.916
1054,177.626
1055,168.577
1056,162.155
1057,162.72
1058,164.146
1059,166.411
1060,163.229
1061,158.13
1062,160.209
1063,161.642
1064,159.941
1065,160.268
1066,163.105
1067,165.554
1068,167.825
1069,162.757
1070,158.739
1071,163.286
1072,166
1073,166
1074,165.633
1075,165.064
1076,163.485
1077,162.891
1078,169.726
1079,172.505
1080,168.516
1081,169.475
1082,173.466
1083,171.529
1084,169.584
1085,174.721
1086,177.38
1087,175.667
1088,171.509
1089,165.794
1090,165.985
1091,167.192
1092,168.909
1093,171.459
1094,175.466
1095,170.991
1096,161.255
1097,159.501
1098,159.361
1099,162.228
1100,165.314
1101,168.756
1102,164.502
1103,155.892
1104,153.456
1105,154.139
1106,167.929
1107,173.377
1108,167.053
1109,163.058
1110,160.181
1111,162.157
1112,165.034
1113,170.216
1114,168.733
1115,159.514
1116,157.839
1117,158.992
1118,162.435
1119,164.851
1120,164.273
1121,165.215
1122,167.525
1123,166.623
1124,164.963
1125,164.385
1126,163.228
1127,160.915
1128,161.4
1129,163.714
1130,160.955
1131,158.953
1132,165.325
1133,174.399
1134,187.151
1135,188.166
1136,184.106
1137,178.349
1138,173.709
1139,172.548
1140,176.295
1141,184.428
1142,189.751
1143,193.097
1144,182.63
1145,177.067
1146,179.976
1147,179.114
1148,176.203
1149,178.168
1150,179.502
1151,177.171
1152,176.58
1153,177.747
1154,180.284
1155,182.839
1156,180.504
1157,177.753
1158,174.248
1159,175.257
1160,178.764
1161,179
1162,177.178
1163,168.988
1164,165.601
1165,166.771
1166,171.713
1167,176.943
1168,176.357
1169,173.25
1170,166.215
1171,165.206
1172,166.966
1173,171.604
1174,175.488
1175,177.25
1176,172.603
1177,163.202
1178,165.589
1179,169.101
1180,169.689
1181,170.555
1182,171.732
1183,167.908
1184,163.349
1185,168.062
1186,170.778
1187,170.188
1188,170.803
1189,171.982
1190,168.512
1191,165.657
1192,164.476
1193,167.174
1194,172.491
1195,167.12
1196,162.251
1197,163.434
1198,162.765
1199,160.398
1200,163.941
1201,167.322
1202,162.583
1203,162.427
1204,167.761
1205,167.634
1206,166
1207,166
1208,161.53
1209,150.25
1210,151.652
1211,158.287
1212,168.391
1213,173.972
1214,170.998
1215,167.234
1216,163.069
1217,158.316
1218,158.256
1219,168.977
1220,173.372
1221,173.968
1222,170.048
1223,165.069
1224,157.91
1225,155.709
1226,156.902
1227,165.226
1228,170.98
1229,166.797
1230,163.977
1231,162.183
1232,165.76
1233,170.219
1234,175.606
1235,174.673
1236,168.684
1237,171.184
1238,174.13
1239,174.729
1240,177.304
1241,181.503
1242,178.825
1243,176.388
1244,178.19
1245,179
1246,179
1247,185.922
1248,191.465
1249,189.059
1250,191.031
1251,196.447
1252,199.703
1253,202.572
1254,204.981
1255,207.74
1256,210.754
1257,216.538
1258,221.942
1259,225.563
1260,232.825
1261,242.485
1262,248.719
1263,250.536
1264,242.074
1265,242.85
1266,248.898
1267,247.215
1268,246.4
1269,247.611
1270,243.479
1271,237.167
1272,243.228
1273,245.168
1274,240.318
1275,235.907
1276,231.222
1277,221.509
1278,214.949
1279,212.519
1280,207.7
1281,203.086
1282,203.694
1283,200.379
1284,193.079
1285,192.519
1286,192.108
1287,187.845
1288,180.47
1289,170.721
1290,175.646
1291,180
1292,180
1293,180.789
1294,181.971
1295,178.307
1296,176.905
1297,179.349
1298,182.691
1299,185.581
1300,181.3
1301,177.867
1302,175.419
1303,179.06
1304,182.641
1305,180.803
1306,180
1307,180
1308,182.857
1309,185
1310,185
1311,185.412
1312,185.868
1313,182.797
1314,182.53
1315,186.218
1316,186.515
1317,186.299
1318,188.144
1319,185.697
1320,179.541
1321,184.618
1322,188.822
1323,188.206
1324,190.053
1325,193.163
1326,196.865
1327,198.739
1328,198.121
1329,193.535
1330,191.048
1331,202.171
1332,206.65
1333,206.032
1334,201.306
1335,201.081
1336,210.365
1337,212.556
1338,212.063
1339,212.682
1340,216.022
1341,222.222
1342,218.661
1343,214.023
1344,210.3
1345,212.234
1346,216.975
1347,216.354
1348,214.125
1349,209.774
1350,200.818
1351,193.934
1352,198.29
1353,199.622
1354,198.999
1355,198.376
1356,195.778
1357,190.169
1358,188.506
1359,190.113
1360,201.344
1361,200.883
1362,192.143
1363,195.072
1364,196.043
1365,193.543
1366,195.447
1367,199.722
1368,209.106
1369,211.535
1370,209.031
1371,209
1372,213.9
1373,226.433
1374,229.499
1375,231.256
1376,237.53
1377,237.717
1378,234.163
1379,246.723
1380,255.057
1381,257.571
1382,252.266
1383,247.9
1384,251.674
1385,250.959
1386,247.849
1387,245.331
1388,245.189
1389,247.709
1390,245.77
1391,242.308
1392,236.631
1393,236.349
1394,238.808
1395,245.122
1396,243.875
1397,236.294
1398,236.608
1399,234.363
1400,227.406
1401,220.952
1402,214.623
1403,208.293
1404,213.273
1405,223.4
1406,213.26
1407,204.948
1408,198.607
1409,192.263
1410,188.625
1411,190.529
1412,185.263
1413,179.453
1414,181.995
1415,182.231
1416,181
1417,181
1418,179.244
1419,175.425
1420,176.132
1421,176.594
1422,175.32
1423,177.388
1424,180.691
1425,184.518
1426,180.134
1427,171.41
1428,180.35
1429,184.08
1430,182.164
1431,185.508
1432,188.896
1433,191.454
1434,194.517
1435,197
1436,197
1437,197
1438,197.194
1439,199.117
1440,196.878
1441,191.107
1442,194.149
1443,196.272
1444,196.914
1445,190.33
1446,185.595
1447,187.523
1448,190.419
1449,193.254
1450,194.541
1451,192.103
1452,187.597
1453,183.089
1454,183.421
1455,187.932
1456,182.92
1457,181.119
1458,183.7
1459,181.148
1460,179.648
1461,181.585
1462,182
1463,180.923
1464,176.398
1465,174.553
1466,175.033
1467,182.151
1468,183.835
1469,182.216
1470,186.103
1471,188
1472,188
1473,182.343
1474,182.881
1475,191.965
1476,191.274
1477,189.326
1478,187.377
1479,185.428
1480,185.567
1481,191.42
1482,190.625
1483,187.874
1484,187.223
1485,187.428
1486,187.842
1487,186.538
1488,185.617
1489,185.07
1490,186.374
1491,185.641
1492,183.03
1493,177.836
1494,177.389
1495,182.617
1496,177.548
1497,175.039
1498,177.655
1499,180.841
1500,180.103
1501,171.591
1502,166.271
1503,165.256
1504,173.122
1505,170.506
1506,164.447
1507,157.885
1508,157.872
1509,160.249
1510,161.563
1511,158.052
1512,152.808
1513,151.493
1514,153.88
1515,157.653
1516,154.361
1517,155.704
1518,159.73
1519,155.776
1520,152.547
1521,149.977
1522,149.318
1523,148.316
1524,147.02
1525,152.964
1526,155.677
1527,155.016
1528,154.355
1529,154.92
1530,156.904
1531,158.26
1532,162.794
1533,171.402
1534,184.947
1535,188.532
1536,177.926
1537,172.762
1538,169.462
1539,168.135
1540,173.963
1541,172.792
1542,159.506
1543,169.787
1544,177.238
1545,175.242
1546,171.493
1547,170.5
1548,174.495
1549,174.418
1550,171.768
1551,165.77
1552,167.906
1553,170
1554,170
1555,171.748
1556,171.998
1557,169.327
1558,170.759
1559,171.236
1560,169.23
1561,167.223
1562,165.739
1563,165.069
1564,163.799
1565,163.54
1566,164.88
1567,160.117
1568,158.966
1569,163.661
1570,160.264
1571,155.061
1572,148.346
1573,156.92
1574,161.691
1575,161.019
1576,161.654
1577,157.43
1578,148.01
1579,147.328
1580,148.729
1581,152.039
1582,153.387
1583,150.692
1584,145.126
1585,147.15
1586,147.217
1587,146.532
1588,151.935
1589,152.748
1590,150.254
1591,144.846
1592,147.902
1593,154.489
1594,157.196
1595,154.668
1596,150.693
1597,149.338
1598,153.069
1599,156.254
1600,153.541
1601,151.913
1602,151.222
1603,151.901
1604,154.902
1605,157.26
1606,157.94
1607,159.239
1608,159.7
1609,159.02
1610,164.949
1611,164.238
1612,157.093
1613,159.819
1614,164.091
1615,168.386
1616,162.245
1617,161.299
1618,162.538
1619,159.806
1620,158.518
1621,157.835
1622,157.151
1623,161.796
1624,165.566
1625,164.197
1626,166.345
1627,169.626
1628,173.737
1629,175.283
1630,172.072
1631,164.066
1632,167.497
1633,171.701
1634,174.768
1635,163.089
1636,151.854
1637,143.134
1638,143.822
1639,144
1640,143.604
1641,142.227
1642,135.1
1643,127.889
1644,122.376
1645,127.14
1646,127.342
1647,121.845
1648,117.013
1649,116.209
1650,118.374
1651,121.138
1652,120.097
1653,117.331
1654,114.565
1655,114.551
1656,115.729
1657,117.807
1658,111.717
1659,106.394
1660,103.145
1661,110.08
1662,115.009
1663,117.043
1664,110.1
1665,107.031
1666,107.435
1667,112.995
1668,110.012
1669,103.818
1670,95.4686
1671,103.542
1672,108.707
1673,109.651
1674,104.773
1675,99.893
1676,98.2587
1677,109.42
1678,110.39
1679,109.47
1680,110.866
1681,114.159
1682,112.693
1683,105.762
1684,100.166
1685,100.145
1686,103.515
1687,106.316
1688,102.764
1689,99.2302
1690,99.9311
1691,106.324
1692,106.995
1693,101
1694,101
1695,102.32
1696,103.858
1697,103.155
1698,95.3242
1699,93.7798
1700,107.147
1701,105.364
1702,99.2796
1703,91.4046
1704,95.6325
1705,101.77
1706,105.361
1707,99.0123
1708,98.5932
1709,98.7008
1710,97.984
1711,95.8644
1712,95
1713,95.2511
1714,96.6657
1715,99.702
1716,99.0218
1717,90.5255
1718,93.3229
1719,92.0146
1720,87.082
1721,87.7911
1722,89.0011
1723,88.9491
1724,85.3996
1725,85
1726,84.6592
1727,84.6686
1728,93.9119
1729,96.5263
1730,94.7034
1731,89.721
1732,82.909
1733,84.7855
1734,97.1359
1735,99.9875
1736,93.1797
1737,83.8266
1738,83.1129
1739,89.0103
1740,92.0543
1741,89.7034
1742,82.5555
1743,78.6215
1744,79.4465
1745,89.4641
1746,87.9692
1747,86
1748,86.1158
1749,88.2658
1750,88.0556
1751,87.1894
1752,87.9068
1753,89.8737
1754,89.6297
1755,87
1756,87
1757,86.5018
1758,87.3037
1759,91.6198
1760,86.7495
1761,82.8713
1762,82.2529
1763,91.6191
1764,94.5376
1765,92.6725
1766,86.1814
1767,85.2985
1768,88.8097
1769,92.1101
1770,82.7192
1771,79.8191
1772,85.5809
1773,99.4519
1774,88.599
1775,84.0323
1776,82.3764
1777,80.2035
1778,83.9408
1779,85.2367
1780,84.3203
1781,86.4967
1782,86.442
1783,85.1482
1784,83.0101
1785,83.7367
1786,80.7551
1787,77.5719
1788,79.7539
1789,78.063
1790,76.2528
1791,75.7125
1792,80.812
1793,79.7636
1794,78.2881
1795,79.0871
1796,82.7354
1797,84.477
1798,84.3786
1799,82.1873
1800,83.3367
1801,81.2044
1802,78.5677
1803,87.3468
1804,83.0587
1805,81.9364
1806,87.648
1807,83.2516
1808,78.329
1809,76.2884
1810,79.956
1811,78.5498
1812,75.7038
1813,74.9364
1814,82.2832
1815,83
1816,77.4193
1817,71.2804
1818,83.7897
1819,80.5447
1820,74.9447
1821,71.9505
1822,80.7945
1823,86.8745
1824,86.7984
1825,79.0577
1826,80.534
1827,80.4945
1828,80.2441
1829,80.9831
1830,86.7793
1831,83.4561
1832,76.1927
1833,73.2322
1834,79.8242
1835,80.8843
1836,77.5076
1837,75.2838
1838,73.7059
1839,77.6671
1840,84.0826
1841,78.8854
1842,76.7674
1843,76.7187
1844,77.5895
1845,74.615
1846,75.1804
1847,79.0096
1848,84.7634
1849,82.529
1850,75.7435
1851,69.7434
1852,67.4183
1853,72.6402
1854,76.7601
1855,77.8058
1856,74.9093
1857,73.415
1858,75.6998
1859,77.137
1860,74.715
1861,68.7282
1862,70.7282
1863,74.563
1864,76.0613
1865,77.5603
1866,74.2903
1867,70.72
1868,70.2732
1869,77.0296
1870,78.4679
1871,77.1501
1872,74.9652
1873,74.2133
1874,75.6167
1875,76.4173
1876,74.8238
1877,71.8115
1878,71
1879,71.9124
1880,74.058
1881,74.8123
1882,72.1656
1883,70
1884,70.5378
1885,75.826
1886,77
1887,74.9354
1888,70.8996
1889,70.1429
1890,81.0526
1891,83.9159
1892,76.7424
1893,75.2267
1894,73.0655
1895,72.8066
1896,72.7038
1897,66.6315
1898,70.7633
1899,69.919
1900,68.201
1901,76.5637
1902,74.8371
1903,70.6271
1904,66.757
1905,66.0491
1906,74.4293
1907,73.8295
1908,69.8367
1909,66.8395
1910,64.5504
1911,69.2189
1912,69.565
1913,63.537
1914,67.3583
1915,71.8174
1916,71.5934
1917,68.4987
1918,70.795
1919,66.815
1920,67.7816
1921,70.3101
1922,68.0101
1923,72.5822
1924,68.1586
1925,65.3893
1926,71.4659
1927,76.8438
1928,74.3795
1929,67.1602
1930,61.9703
##>>>>>End Processed Spectral Data<<<<<
